Methods Information:
09.04.2024 19:37:06
<untitled>  
List:  Volume(ml)       Buffer    ml/min
 ->    0.00 Collect All:  1.00 ml 
01     0.00 to   15.00 BUFFER A     1.00
--------------------------------------------------
--------------------------------------------------
Time [min.]:	UV [A.U.]:	Conductivity [mS/cm]:	Events:		
0.000	0.0093	25.41	Start  23.82 min		
0.017	0.0094	25.41	Fraction  24.83 min		
0.033	0.0094	25.41	Fraction  25.83 min		
0.050	0.0093	25.43	Fraction  26.83 min		
0.067	0.0094	25.41	Fraction  27.83 min		
0.083	0.0093	25.41	Fraction  28.83 min		
0.100	0.0093	25.40	Fraction  29.83 min		
0.117	0.0093	25.40	Fraction  30.83 min		
0.133	0.0092	25.40	Fraction  31.83 min		
0.150	0.0092	25.43	Fraction  32.83 min		
0.167	0.0092	25.44	Fraction  33.83 min		
0.183	0.0092	25.44	Fraction  33.94 min		
0.200	0.0093	25.41	End  33.94 min		
0.217	0.0094	25.41			
0.233	0.0095	25.41			
0.250	0.0095	25.41			
0.267	0.0094	25.43			
0.283	0.0094	25.43			
0.300	0.0094	25.41			
0.317	0.0093	25.41			
0.333	0.0093	25.43			
0.350	0.0093	25.44			
0.367	0.0093	25.43			
0.383	0.0093	25.43			
0.400	0.0093	25.44			
0.417	0.0092	25.44			
0.433	0.0091	25.44			
0.450	0.0090	25.44			
0.467	0.0091	25.46			
0.483	0.0092	25.47			
0.500	0.0092	25.47			
0.517	0.0091	25.47			
0.533	0.0091	25.47			
0.550	0.0092	25.49			
0.567	0.0093	25.49			
0.583	0.0093	25.50			
0.600	0.0092	25.50			
0.617	0.0092	25.50			
0.633	0.0092	25.52			
0.650	0.0093	25.52			
0.667	0.0093	25.52			
0.683	0.0093	25.52			
0.700	0.0092	25.52			
0.717	0.0092	25.52			
0.733	0.0092	25.52			
0.750	0.0092	25.52			
0.767	0.0092	25.53			
0.783	0.0092	25.53			
0.800	0.0092	25.53			
0.817	0.0092	25.53			
0.833	0.0092	25.53			
0.850	0.0092	25.53			
0.867	0.0092	25.53			
0.883	0.0092	25.53			
0.900	0.0092	25.55			
0.917	0.0091	25.55			
0.933	0.0091	25.55			
0.950	0.0092	25.55			
0.967	0.0091	25.55			
0.983	0.0091	25.57			
1.000	0.0090	25.57			
1.017	0.0090	25.57			
1.033	0.0091	25.57			
1.050	0.0091	25.55			
1.067	0.0091	25.57			
1.083	0.0091	25.58			
1.100	0.0091	25.58			
1.117	0.0091	25.58			
1.133	0.0091	25.57			
1.150	0.0091	25.57			
1.167	0.0090	25.58			
1.183	0.0091	25.58			
1.200	0.0091	25.58			
1.217	0.0091	25.58			
1.233	0.0090	25.58			
1.250	0.0091	25.58			
1.267	0.0092	25.58			
1.283	0.0092	25.58			
1.300	0.0092	25.60			
1.317	0.0092	25.60			
1.333	0.0093	25.60			
1.350	0.0094	25.60			
1.367	0.0096	25.60			
1.383	0.0099	25.60			
1.400	0.0102	25.60			
1.417	0.0107	25.60			
1.433	0.0115	25.58			
1.450	0.0124	25.60			
1.467	0.0135	25.58			
1.483	0.0148	25.60			
1.500	0.0162	25.55			
1.517	0.0178	25.55			
1.533	0.0195	25.60			
1.550	0.0213	25.60			
1.567	0.0231	25.57			
1.583	0.0251	25.55			
1.600	0.0271	25.55			
1.617	0.0291	25.55			
1.633	0.0311	25.55			
1.650	0.0330	25.57			
1.667	0.0351	25.55			
1.683	0.0371	25.55			
1.700	0.0391	25.55			
1.717	0.0412	25.55			
1.733	0.0432	25.55			
1.750	0.0453	25.55			
1.767	0.0474	25.55			
1.783	0.0492	25.55			
1.800	0.0512	25.55			
1.817	0.0531	25.54			
1.833	0.0551	25.54			
1.850	0.0572	25.55			
1.867	0.0591	25.54			
1.883	0.0610	25.54			
1.900	0.0630	25.55			
1.917	0.0653	25.54			
1.933	0.0677	25.54			
1.950	0.0698	25.54			
1.967	0.0718	25.55			
1.983	0.0739	25.54			
2.000	0.0758	25.54			
2.017	0.0779	25.54			
2.033	0.0801	25.54			
2.050	0.0824	25.54			
2.067	0.0847	25.54			
2.083	0.0872	25.52			
2.100	0.0897	25.54			
2.117	0.0921	25.54			
2.133	0.0945	25.54			
2.150	0.0971	25.54			
2.167	0.0998	25.54			
2.183	0.1025	25.55			
2.200	0.1050	25.55			
2.217	0.1076	25.55			
2.233	0.1101	25.55			
2.250	0.1129	25.57			
2.267	0.1157	25.57			
2.283	0.1183	25.58			
2.300	0.1209	25.58			
2.317	0.1235	25.60			
2.333	0.1262	25.60			
2.350	0.1289	25.60			
2.367	0.1314	25.60			
2.383	0.1338	25.63			
2.400	0.1364	25.64			
2.417	0.1390	25.64			
2.433	0.1414	25.67			
2.450	0.1438	25.69			
2.467	0.1460	25.70			
2.483	0.1485	25.72			
2.500	0.1509	25.73			
2.517	0.1531	25.76			
2.533	0.1552	25.78			
2.550	0.1574	25.81			
2.567	0.1597	25.82			
2.583	0.1618	25.86			
2.600	0.1637	25.87			
2.617	0.1656	25.90			
2.633	0.1676	25.93			
2.650	0.1697	25.96			
2.667	0.1717	25.99			
2.683	0.1736	26.02			
2.700	0.1754	26.07			
2.717	0.1772	26.10			
2.733	0.1791	26.13			
2.750	0.1809	26.16			
2.767	0.1825	26.19			
2.783	0.1839	26.24			
2.800	0.1854	26.28			
2.817	0.1872	26.31			
2.833	0.1889	26.36			
2.850	0.1903	26.37			
2.867	0.1916	26.42			
2.883	0.1930	26.47			
2.900	0.1944	26.50			
2.917	0.1958	26.53			
2.933	0.1972	26.57			
2.950	0.1984	26.60			
2.967	0.1996	26.65			
2.983	0.2009	26.68			
3.000	0.2022	26.72			
3.017	0.2033	26.75			
3.033	0.2045	26.82			
3.050	0.2055	26.85			
3.067	0.2067	26.86			
3.083	0.2079	26.91			
3.100	0.2089	26.95			
3.117	0.2099	26.98			
3.133	0.2108	27.03			
3.150	0.2119	27.06			
3.167	0.2129	27.07			
3.183	0.2138	27.12			
3.200	0.2146	27.15			
3.217	0.2157	27.18			
3.233	0.2167	27.21			
3.250	0.2175	27.24			
3.267	0.2183	27.27			
3.283	0.2191	27.29			
3.300	0.2198	27.33			
3.317	0.2209	27.35			
3.333	0.2217	27.38			
3.350	0.2224	27.39			
3.367	0.2233	27.43			
3.383	0.2240	27.46			
3.400	0.2247	27.47			
3.417	0.2254	27.50			
3.433	0.2261	27.52			
3.450	0.2268	27.55			
3.467	0.2275	27.56			
3.483	0.2283	27.58			
3.500	0.2290	27.59			
3.517	0.2296	27.61			
3.533	0.2302	27.62			
3.550	0.2308	27.65			
3.567	0.2314	27.68			
3.583	0.2321	27.70			
3.600	0.2327	27.70			
3.617	0.2331	27.72			
3.633	0.2338	27.75			
3.650	0.2345	27.76			
3.667	0.2350	27.76			
3.683	0.2355	27.76			
3.700	0.2360	27.78			
3.717	0.2365	27.81			
3.733	0.2371	27.82			
3.750	0.2375	27.84			
3.767	0.2380	27.84			
3.783	0.2385	27.85			
3.800	0.2390	27.87			
3.817	0.2395	27.87			
3.833	0.2400	27.90			
3.850	0.2404	27.90			
3.867	0.2408	27.90			
3.883	0.2412	27.91			
3.900	0.2418	27.91			
3.917	0.2423	27.93			
3.933	0.2426	27.94			
3.950	0.2430	27.94			
3.967	0.2434	27.94			
3.983	0.2439	27.96			
4.000	0.2443	27.97			
4.017	0.2447	27.97			
4.033	0.2449	27.97			
4.050	0.2454	27.97			
4.067	0.2458	27.97			
4.083	0.2462	27.99			
4.100	0.2466	28.00			
4.117	0.2470	28.00			
4.133	0.2472	28.00			
4.150	0.2476	28.02			
4.167	0.2479	28.04			
4.183	0.2481	28.04			
4.200	0.2484	28.05			
4.217	0.2490	28.04			
4.233	0.2494	28.04			
4.250	0.2497	28.04			
4.267	0.2500	28.05			
4.283	0.2504	28.05			
4.300	0.2506	28.05			
4.317	0.2509	28.05			
4.333	0.2511	28.07			
4.350	0.2515	28.07			
4.367	0.2518	28.07			
4.383	0.2521	28.05			
4.400	0.2524	28.07			
4.417	0.2528	28.08			
4.433	0.2530	28.08			
4.450	0.2533	28.10			
4.467	0.2536	28.08			
4.483	0.2539	28.08			
4.500	0.2541	28.10			
4.517	0.2543	28.10			
4.533	0.2547	28.11			
4.550	0.2550	28.10			
4.567	0.2552	28.11			
4.583	0.2553	28.11			
4.600	0.2555	28.11			
4.617	0.2558	28.11			
4.633	0.2561	28.11			
4.650	0.2563	28.11			
4.667	0.2566	28.11			
4.683	0.2569	28.13			
4.700	0.2573	28.13			
4.717	0.2574	28.14			
4.733	0.2575	28.13			
4.750	0.2577	28.13			
4.767	0.2579	28.13			
4.783	0.2581	28.14			
4.800	0.2585	28.14			
4.817	0.2589	28.14			
4.833	0.2591	28.13			
4.850	0.2592	28.13			
4.867	0.2593	28.14			
4.883	0.2595	28.13			
4.900	0.2598	28.14			
4.917	0.2600	28.14			
4.933	0.2601	28.14			
4.950	0.2603	28.14			
4.967	0.2605	28.14			
4.983	0.2608	28.14			
5.000	0.2609	28.14			
5.017	0.2611	28.14			
5.033	0.2613	28.14			
5.050	0.2615	28.14			
5.067	0.2618	28.16			
5.083	0.2620	28.16			
5.100	0.2620	28.14			
5.117	0.2621	28.14			
5.133	0.2623	28.16			
5.150	0.2626	28.16			
5.167	0.2628	28.16			
5.183	0.2630	28.16			
5.200	0.2630	28.16			
5.217	0.2632	28.14			
5.233	0.2635	28.16			
5.250	0.2637	28.16			
5.267	0.2638	28.16			
5.283	0.2639	28.16			
5.300	0.2640	28.16			
5.317	0.2641	28.17			
5.333	0.2643	28.16			
5.350	0.2644	28.16			
5.367	0.2646	28.16			
5.383	0.2648	28.16			
5.400	0.2650	28.17			
5.417	0.2650	28.16			
5.433	0.2653	28.16			
5.450	0.2654	28.16			
5.467	0.2655	28.16			
5.483	0.2657	28.17			
5.500	0.2658	28.17			
5.517	0.2659	28.16			
5.533	0.2660	28.16			
5.550	0.2662	28.16			
5.567	0.2664	28.14			
5.583	0.2665	28.17			
5.600	0.2666	28.17			
5.617	0.2667	28.17			
5.633	0.2669	28.19			
5.650	0.2669	28.19			
5.667	0.2670	28.17			
5.683	0.2672	28.19			
5.700	0.2673	28.19			
5.717	0.2675	28.19			
5.733	0.2676	28.19			
5.750	0.2678	28.19			
5.767	0.2679	28.19			
5.783	0.2681	28.19			
5.800	0.2681	28.20			
5.817	0.2682	28.19			
5.833	0.2683	28.20			
5.850	0.2684	28.20			
5.867	0.2685	28.20			
5.883	0.2687	28.22			
5.900	0.2688	28.22			
5.917	0.2689	28.20			
5.933	0.2689	28.20			
5.950	0.2691	28.22			
5.967	0.2693	28.23			
5.983	0.2695	28.17			
6.000	0.2696	28.20			
6.017	0.2697	28.20			
6.033	0.2697	28.22			
6.050	0.2698	28.23			
6.067	0.2700	28.23			
6.083	0.2701	28.18			
6.100	0.2701	28.18			
6.117	0.2701	28.23			
6.133	0.2702	28.23			
6.150	0.2704	28.18			
6.167	0.2704	28.18			
6.183	0.2705	28.17			
6.200	0.2707	28.17			
6.217	0.2708	28.17			
6.233	0.2709	28.17			
6.250	0.2710	28.17			
6.267	0.2710	28.17			
6.283	0.2713	28.17			
6.300	0.2714	28.18			
6.317	0.2716	28.17			
6.333	0.2716	28.17			
6.350	0.2716	28.18			
6.367	0.2716	28.18			
6.383	0.2718	28.18			
6.400	0.2719	28.17			
6.417	0.2720	28.17			
6.433	0.2721	28.18			
6.450	0.2721	28.18			
6.467	0.2722	28.17			
6.483	0.2724	28.17			
6.500	0.2724	28.18			
6.517	0.2723	28.18			
6.533	0.2725	28.18			
6.550	0.2728	28.17			
6.567	0.2729	28.17			
6.583	0.2728	28.18			
6.600	0.2728	28.18			
6.617	0.2731	28.17			
6.633	0.2731	28.17			
6.650	0.2731	28.17			
6.667	0.2732	28.18			
6.683	0.2733	28.18			
6.700	0.2734	28.18			
6.717	0.2735	28.18			
6.733	0.2736	28.17			
6.750	0.2737	28.18			
6.767	0.2738	28.17			
6.783	0.2739	28.17			
6.800	0.2739	28.15			
6.817	0.2739	28.17			
6.833	0.2739	28.17			
6.850	0.2741	28.17			
6.867	0.2742	28.17			
6.883	0.2743	28.17			
6.900	0.2744	28.18			
6.917	0.2745	28.17			
6.933	0.2745	28.18			
6.950	0.2746	28.18			
6.967	0.2748	28.18			
6.983	0.2748	28.17			
7.000	0.2748	28.17			
7.017	0.2748	28.17			
7.033	0.2749	28.18			
7.050	0.2750	28.17			
7.067	0.2751	28.17			
7.083	0.2751	28.17			
7.100	0.2752	28.17			
7.117	0.2752	28.17			
7.133	0.2753	28.18			
7.150	0.2754	28.17			
7.167	0.2754	28.17			
7.183	0.2754	28.18			
7.200	0.2755	28.17			
7.217	0.2756	28.15			
7.233	0.2757	28.17			
7.250	0.2758	28.17			
7.267	0.2758	28.17			
7.283	0.2759	28.18			
7.300	0.2760	28.17			
7.317	0.2760	28.17			
7.333	0.2760	28.18			
7.350	0.2762	28.17			
7.367	0.2763	28.17			
7.383	0.2763	28.18			
7.400	0.2764	28.18			
7.417	0.2766	28.17			
7.433	0.2766	28.17			
7.450	0.2766	28.18			
7.467	0.2767	28.18			
7.483	0.2768	28.18			
7.500	0.2768	28.18			
7.517	0.2769	28.18			
7.533	0.2771	28.18			
7.550	0.2771	28.18			
7.567	0.2770	28.18			
7.583	0.2770	28.18			
7.600	0.2772	28.20			
7.617	0.2773	28.20			
7.633	0.2773	28.20			
7.650	0.2773	28.20			
7.667	0.2773	28.20			
7.683	0.2775	28.20			
7.700	0.2776	28.21			
7.717	0.2776	28.21			
7.733	0.2778	28.20			
7.750	0.2779	28.21			
7.767	0.2779	28.21			
7.783	0.2778	28.21			
7.800	0.2779	28.20			
7.817	0.2781	28.20			
7.833	0.2781	28.21			
7.850	0.2781	28.21			
7.867	0.2781	28.21			
7.883	0.2781	28.21			
7.900	0.2781	28.21			
7.917	0.2781	28.23			
7.933	0.2783	28.21			
7.950	0.2783	28.21			
7.967	0.2783	28.21			
7.983	0.2784	28.21			
8.000	0.2787	28.21			
8.017	0.2788	28.21			
8.033	0.2789	28.21			
8.050	0.2788	28.21			
8.067	0.2787	28.21			
8.083	0.2789	28.21			
8.100	0.2790	28.21			
8.117	0.2791	28.23			
8.133	0.2791	28.23			
8.150	0.2792	28.23			
8.167	0.2792	28.23			
8.183	0.2792	28.23			
8.200	0.2792	28.21			
8.217	0.2794	28.20			
8.233	0.2794	28.20			
8.250	0.2795	28.21			
8.267	0.2794	28.21			
8.283	0.2795	28.23			
8.300	0.2795	28.23			
8.317	0.2795	28.21			
8.333	0.2795	28.21			
8.350	0.2797	28.21			
8.367	0.2797	28.21			
8.383	0.2797	28.21			
8.400	0.2797	28.21			
8.417	0.2799	28.21			
8.433	0.2799	28.20			
8.450	0.2799	28.21			
8.467	0.2799	28.21			
8.483	0.2801	28.21			
8.500	0.2803	28.21			
8.517	0.2802	28.21			
8.533	0.2803	28.21			
8.550	0.2803	28.21			
8.567	0.2804	28.21			
8.583	0.2804	28.21			
8.600	0.2805	28.20			
8.617	0.2806	28.21			
8.633	0.2806	28.21			
8.650	0.2805	28.21			
8.667	0.2805	28.21			
8.683	0.2805	28.20			
8.700	0.2807	28.21			
8.717	0.2809	28.21			
8.733	0.2809	28.21			
8.750	0.2809	28.20			
8.767	0.2809	28.20			
8.783	0.2810	28.21			
8.800	0.2811	28.21			
8.817	0.2811	28.20			
8.833	0.2810	28.20			
8.850	0.2811	28.20			
8.867	0.2812	28.20			
8.883	0.2813	28.21			
8.900	0.2814	28.20			
8.917	0.2815	28.20			
8.933	0.2814	28.20			
8.950	0.2814	28.18			
8.967	0.2814	28.20			
8.983	0.2815	28.20			
9.000	0.2815	28.20			
9.017	0.2816	28.20			
9.033	0.2817	28.20			
9.050	0.2817	28.20			
9.067	0.2817	28.20			
9.083	0.2816	28.20			
9.100	0.2816	28.20			
9.117	0.2817	28.18			
9.133	0.2820	28.20			
9.150	0.2820	28.20			
9.167	0.2820	28.18			
9.183	0.2819	28.20			
9.200	0.2821	28.18			
9.217	0.2821	28.18			
9.233	0.2821	28.20			
9.250	0.2821	28.18			
9.267	0.2821	28.20			
9.283	0.2822	28.20			
9.300	0.2821	28.20			
9.317	0.2821	28.18			
9.333	0.2822	28.20			
9.350	0.2824	28.20			
9.367	0.2823	28.18			
9.383	0.2823	28.18			
9.400	0.2824	28.18			
9.417	0.2824	28.18			
9.433	0.2825	28.20			
9.450	0.2825	28.18			
9.467	0.2826	28.18			
9.483	0.2826	28.18			
9.500	0.2826	28.18			
9.517	0.2827	28.20			
9.533	0.2827	28.20			
9.550	0.2828	28.20			
9.567	0.2828	28.20			
9.583	0.2828	28.20			
9.600	0.2829	28.20			
9.617	0.2829	28.18			
9.633	0.2829	28.20			
9.650	0.2830	28.21			
9.667	0.2830	28.20			
9.683	0.2830	28.20			
9.700	0.2829	28.21			
9.717	0.2831	28.21			
9.733	0.2832	28.21			
9.750	0.2833	28.21			
9.767	0.2833	28.21			
9.783	0.2833	28.21			
9.800	0.2832	28.23			
9.817	0.2833	28.21			
9.833	0.2834	28.21			
9.850	0.2835	28.23			
9.867	0.2834	28.23			
9.883	0.2834	28.24			
9.900	0.2834	28.23			
9.917	0.2835	28.23			
9.933	0.2835	28.23			
9.950	0.2836	28.23			
9.967	0.2836	28.24			
9.983	0.2837	28.24			
10.000	0.2837	28.24			
10.017	0.2837	28.18			
10.033	0.2837	28.26			
10.050	0.2837	28.18			
10.067	0.2838	28.17			
10.083	0.2838	28.17			
10.100	0.2839	28.17			
10.117	0.2840	28.18			
10.133	0.2841	28.17			
10.150	0.2841	28.17			
10.167	0.2840	28.17			
10.183	0.2841	28.17			
10.200	0.2842	28.18			
10.217	0.2842	28.18			
10.233	0.2842	28.18			
10.250	0.2842	28.18			
10.267	0.2842	28.18			
10.283	0.2842	28.18			
10.300	0.2842	28.18			
10.317	0.2843	28.18			
10.333	0.2844	28.18			
10.350	0.2844	28.18			
10.367	0.2843	28.18			
10.383	0.2843	28.18			
10.400	0.2845	28.18			
10.417	0.2845	28.20			
10.433	0.2845	28.20			
10.450	0.2846	28.18			
10.467	0.2846	28.08			
10.483	0.2847	28.10			
10.500	0.2847	28.08			
10.517	0.2848	28.08			
10.533	0.2847	28.10			
10.550	0.2847	28.10			
10.567	0.2847	28.08			
10.583	0.2847	28.08			
10.600	0.2848	28.08			
10.617	0.2849	28.08			
10.633	0.2851	28.10			
10.650	0.2851	28.10			
10.667	0.2851	28.08			
10.683	0.2850	28.08			
10.700	0.2851	28.10			
10.717	0.2851	28.08			
10.733	0.2852	28.08			
10.750	0.2852	28.08			
10.767	0.2852	28.08			
10.783	0.2853	28.03			
10.800	0.2853	28.08			
10.817	0.2853	28.03			
10.833	0.2853	28.08			
10.850	0.2853	28.05			
10.867	0.2854	28.03			
10.883	0.2854	28.03			
10.900	0.2854	28.03			
10.917	0.2854	28.10			
10.933	0.2854	28.05			
10.950	0.2855	28.05			
10.967	0.2857	28.03			
10.983	0.2858	28.03			
11.000	0.2857	28.05			
11.017	0.2857	28.05			
11.033	0.2857	28.03			
11.050	0.2857	28.03			
11.067	0.2859	28.03			
11.083	0.2860	28.03			
11.100	0.2858	28.03			
11.117	0.2858	28.03			
11.133	0.2858	28.03			
11.150	0.2859	28.03			
11.167	0.2860	28.05			
11.183	0.2860	28.03			
11.200	0.2860	28.05			
11.217	0.2860	28.03			
11.233	0.2860	28.02			
11.250	0.2860	28.03			
11.267	0.2860	28.03			
11.283	0.2860	28.03			
11.300	0.2861	28.03			
11.317	0.2861	28.03			
11.333	0.2863	28.05			
11.350	0.2863	28.03			
11.367	0.2863	28.03			
11.383	0.2863	28.03			
11.400	0.2864	28.03			
11.417	0.2864	28.03			
11.433	0.2864	28.03			
11.450	0.2864	28.03			
11.467	0.2865	28.03			
11.483	0.2865	28.03			
11.500	0.2864	28.03			
11.517	0.2864	28.03			
11.533	0.2864	28.02			
11.550	0.2866	28.03			
11.567	0.2865	28.03			
11.583	0.2865	28.03			
11.600	0.2865	28.03			
11.617	0.2866	28.02			
11.633	0.2866	28.02			
11.650	0.2867	28.03			
11.667	0.2867	28.03			
11.683	0.2868	28.05			
11.700	0.2867	28.03			
11.717	0.2867	28.03			
11.733	0.2867	28.03			
11.750	0.2868	28.03			
11.767	0.2869	28.03			
11.783	0.2870	28.03			
11.800	0.2870	28.03			
11.817	0.2869	28.03			
11.833	0.2869	28.03			
11.850	0.2870	28.05			
11.867	0.2871	28.05			
11.883	0.2871	28.05			
11.900	0.2872	28.05			
11.917	0.2872	28.05			
11.933	0.2873	28.06			
11.950	0.2873	28.06			
11.967	0.2873	28.05			
11.983	0.2873	28.05			
12.000	0.2873	28.06			
12.017	0.2873	28.06			
12.033	0.2873	28.06			
12.050	0.2872	28.06			
12.067	0.2873	28.06			
12.083	0.2873	28.05			
12.100	0.2874	28.06			
12.117	0.2875	28.06			
12.133	0.2876	28.06			
12.150	0.2876	28.06			
12.167	0.2876	28.06			
12.183	0.2876	28.06			
12.200	0.2876	28.06			
12.217	0.2876	28.08			
12.233	0.2877	28.08			
12.250	0.2878	28.08			
12.267	0.2878	28.08			
12.283	0.2878	28.06			
12.300	0.2878	28.06			
12.317	0.2878	28.08			
12.333	0.2879	28.08			
12.350	0.2879	28.08			
12.367	0.2879	28.08			
12.383	0.2880	28.08			
12.400	0.2881	28.09			
12.417	0.2880	28.08			
12.433	0.2881	28.08			
12.450	0.2881	28.08			
12.467	0.2881	28.08			
12.483	0.2880	28.08			
12.500	0.2881	28.09			
12.517	0.2881	28.08			
12.533	0.2882	28.08			
12.550	0.2882	28.09			
12.567	0.2882	28.11			
12.583	0.2882	28.09			
12.600	0.2883	28.09			
12.617	0.2883	28.11			
12.633	0.2883	28.11			
12.650	0.2883	28.09			
12.667	0.2883	28.09			
12.683	0.2883	28.09			
12.700	0.2883	28.09			
12.717	0.2883	28.11			
12.733	0.2883	28.09			
12.750	0.2883	28.09			
12.767	0.2883	28.09			
12.783	0.2884	28.09			
12.800	0.2884	28.09			
12.817	0.2883	28.09			
12.833	0.2884	28.09			
12.850	0.2886	28.08			
12.867	0.2886	28.08			
12.883	0.2886	28.09			
12.900	0.2885	28.09			
12.917	0.2885	28.11			
12.933	0.2886	28.09			
12.950	0.2888	28.09			
12.967	0.2888	28.09			
12.983	0.2887	28.09			
13.000	0.2886	28.09			
13.017	0.2887	28.09			
13.033	0.2887	28.11			
13.050	0.2887	28.11			
13.067	0.2889	28.11			
13.083	0.2890	28.11			
13.100	0.2890	28.11			
13.117	0.2889	28.12			
13.133	0.2888	28.12			
13.150	0.2888	28.12			
13.167	0.2889	28.12			
13.183	0.2890	28.11			
13.200	0.2890	28.11			
13.217	0.2890	28.11			
13.233	0.2890	28.11			
13.250	0.2889	28.12			
13.267	0.2889	28.11			
13.283	0.2891	28.12			
13.300	0.2892	28.12			
13.317	0.2892	28.12			
13.333	0.2891	28.12			
13.350	0.2890	28.11			
13.367	0.2892	28.11			
13.383	0.2893	28.11			
13.400	0.2892	28.09			
13.417	0.2891	28.11			
13.433	0.2893	28.12			
13.450	0.2894	28.11			
13.467	0.2895	28.11			
13.483	0.2895	28.12			
13.500	0.2894	28.03			
13.517	0.2893	28.09			
13.533	0.2893	28.09			
13.550	0.2894	28.03			
13.567	0.2894	28.09			
13.583	0.2895	28.03			
13.600	0.2894	28.03			
13.617	0.2895	28.09			
13.633	0.2895	28.02			
13.650	0.2896	28.02			
13.667	0.2897	28.02			
13.683	0.2896	28.02			
13.700	0.2896	28.02			
13.717	0.2896	28.03			
13.733	0.2898	28.03			
13.750	0.2897	28.03			
13.767	0.2897	28.03			
13.783	0.2898	28.03			
13.800	0.2899	28.05			
13.817	0.2899	28.03			
13.833	0.2899	28.03			
13.850	0.2900	28.03			
13.867	0.2899	28.05			
13.883	0.2899	28.05			
13.900	0.2899	28.05			
13.917	0.2899	28.05			
13.933	0.2899	28.03			
13.950	0.2899	28.05			
13.967	0.2900	28.05			
13.983	0.2901	28.05			
14.000	0.2902	28.05			
14.017	0.2901	28.05			
14.033	0.2901	28.06			
14.050	0.2901	28.05			
14.067	0.2901	28.05			
14.083	0.2900	28.06			
14.100	0.2900	28.06			
14.117	0.2902	28.06			
14.133	0.2902	28.08			
14.150	0.2902	28.06			
14.167	0.2902	28.05			
14.183	0.2901	28.06			
14.200	0.2902	28.08			
14.217	0.2902	28.08			
14.233	0.2903	28.09			
14.250	0.2904	28.08			
14.267	0.2906	28.06			
14.283	0.2905	28.08			
14.300	0.2904	28.09			
14.317	0.2903	28.09			
14.333	0.2904	28.08			
14.350	0.2905	28.09			
14.367	0.2906	28.08			
14.383	0.2906	28.08			
14.400	0.2906	28.08			
14.417	0.2905	28.08			
14.433	0.2905	28.09			
14.450	0.2905	28.09			
14.467	0.2906	28.09			
14.483	0.2905	28.09			
