Methods Information:
10.04.2024 19:00:18
<untitled>  
List:  Volume(ml)       Buffer    ml/min
 ->    0.00 Collect All:  1.00 ml 
01     0.00 to   15.00 BUFFER A     1.00
--------------------------------------------------
--------------------------------------------------
Time [min.]:	UV [A.U.]:	Conductivity [mS/cm]:	Events:		
0.000	0.0044	41.36	Start  14.44 min		
0.017	0.0044	41.34	Fraction  15.44 min		
0.033	0.0044	41.34	Fraction  16.44 min		
0.050	0.0043	41.34	Fraction  17.44 min		
0.067	0.0042	41.34	Fraction  18.44 min		
0.083	0.0041	41.43	Fraction  19.44 min		
0.100	0.0040	41.51	Fraction  20.44 min		
0.117	0.0039	41.56	Fraction  21.44 min		
0.133	0.0040	41.61	Fraction  22.44 min		
0.150	0.0040	41.62	Fraction  23.44 min		
0.167	0.0041	41.66	Fraction  24.44 min		
0.183	0.0042	41.67	Fraction  25.44 min		
0.200	0.0042	41.69	Fraction  26.33 min		
0.217	0.0041	41.71	End  26.33 min		
0.233	0.0041	41.72			
0.250	0.0042	41.74			
0.267	0.0042	41.75			
0.283	0.0043	41.77			
0.300	0.0043	41.77			
0.317	0.0044	41.79			
0.333	0.0046	41.80			
0.350	0.0047	41.80			
0.367	0.0048	41.82			
0.383	0.0050	41.82			
0.400	0.0052	41.85			
0.417	0.0052	41.85			
0.433	0.0052	41.87			
0.450	0.0053	41.80			
0.467	0.0053	41.83			
0.483	0.0053	41.85			
0.500	0.0054	41.87			
0.517	0.0054	41.88			
0.533	0.0056	41.90			
0.550	0.0056	41.90			
0.567	0.0056	41.92			
0.583	0.0057	41.92			
0.600	0.0058	41.93			
0.617	0.0058	41.95			
0.633	0.0059	41.97			
0.650	0.0059	41.97			
0.667	0.0058	41.97			
0.683	0.0058	41.98			
0.700	0.0057	41.98			
0.717	0.0058	42.00			
0.733	0.0058	42.01			
0.750	0.0058	41.96			
0.767	0.0058	41.95			
0.783	0.0058	41.96			
0.800	0.0058	41.98			
0.817	0.0057	41.98			
0.833	0.0057	41.98			
0.850	0.0058	41.98			
0.867	0.0058	42.00			
0.883	0.0057	42.00			
0.900	0.0056	42.00			
0.917	0.0057	42.00			
0.933	0.0057	42.01			
0.950	0.0056	42.01			
0.967	0.0056	42.01			
0.983	0.0056	42.01			
1.000	0.0056	42.03			
1.017	0.0055	42.03			
1.033	0.0055	41.96			
1.050	0.0056	41.98			
1.067	0.0057	41.98			
1.083	0.0057	41.98			
1.100	0.0056	41.99			
1.117	0.0056	41.99			
1.133	0.0056	41.99			
1.150	0.0055	41.99			
1.167	0.0054	41.99			
1.183	0.0054	42.01			
1.200	0.0054	42.03			
1.217	0.0054	42.01			
1.233	0.0054	42.01			
1.250	0.0054	42.01			
1.267	0.0054	42.01			
1.283	0.0054	41.92			
1.300	0.0054	41.92			
1.317	0.0055	41.94			
1.333	0.0054	41.94			
1.350	0.0053	41.94			
1.367	0.0053	41.94			
1.383	0.0055	41.94			
1.400	0.0057	41.94			
1.417	0.0058	41.94			
1.433	0.0061	41.94			
1.450	0.0064	41.96			
1.467	0.0067	41.96			
1.483	0.0072	41.96			
1.500	0.0078	41.96			
1.517	0.0085	41.96			
1.533	0.0093	41.97			
1.550	0.0101	41.99			
1.567	0.0110	41.99			
1.583	0.0121	41.99			
1.600	0.0133	41.92			
1.617	0.0147	41.92			
1.633	0.0162	41.94			
1.650	0.0177	41.94			
1.667	0.0192	41.94			
1.683	0.0209	41.95			
1.700	0.0227	41.95			
1.717	0.0245	41.95			
1.733	0.0264	41.97			
1.750	0.0283	41.97			
1.767	0.0302	41.95			
1.783	0.0321	41.97			
1.800	0.0342	41.97			
1.817	0.0362	41.97			
1.833	0.0383	41.97			
1.850	0.0403	41.95			
1.867	0.0426	41.97			
1.883	0.0444	41.90			
1.900	0.0458	41.76			
1.917	0.0462	41.69			
1.933	0.0460	41.66			
1.950	0.0457	41.63			
1.967	0.0456	41.61			
1.983	0.0456	41.58			
2.000	0.0456	41.58			
2.017	0.0456	41.56			
2.033	0.0455	41.53			
2.050	0.0455	41.53			
2.067	0.0456	41.53			
2.083	0.0455	41.50			
2.100	0.0456	41.40			
2.117	0.0458	41.38			
2.133	0.0455	41.37			
2.150	0.0447	41.38			
2.167	0.0442	41.40			
2.183	0.0440	41.40			
2.200	0.0440	41.40			
2.217	0.0440	41.42			
2.233	0.0439	41.43			
2.250	0.0438	41.43			
2.267	0.0439	41.43			
2.283	0.0439	41.43			
2.300	0.0439	41.43			
2.317	0.0438	41.43			
2.333	0.0438	41.42			
2.350	0.0437	41.42			
2.367	0.0437	41.40			
2.383	0.0438	41.40			
2.400	0.0438	41.38			
2.417	0.0438	41.38			
2.433	0.0438	41.40			
2.450	0.0438	41.40			
2.467	0.0438	41.38			
2.483	0.0438	41.38			
2.500	0.0438	41.37			
2.517	0.0438	41.38			
2.533	0.0438	41.37			
2.550	0.0438	41.38			
2.567	0.0437	41.37			
2.583	0.0438	41.35			
2.600	0.0437	41.35			
2.617	0.0446	41.38			
2.633	0.0461	41.42			
2.650	0.0474	41.45			
2.667	0.0479	41.46			
2.683	0.0470	41.50			
2.700	0.0478	41.50			
2.717	0.0502	41.51			
2.733	0.0523	41.51			
2.750	0.0530	41.53			
2.767	0.0540	41.56			
2.783	0.0555	41.58			
2.800	0.0575	41.58			
2.817	0.0599	41.58			
2.833	0.0621	41.59			
2.850	0.0647	41.59			
2.867	0.0661	41.59			
2.883	0.0674	41.61			
2.900	0.0681	41.61			
2.917	0.0688	41.61			
2.933	0.0696	41.61			
2.950	0.0704	41.63			
2.967	0.0713	41.63			
2.983	0.0722	41.63			
3.000	0.0720	41.63			
3.017	0.0708	41.61			
3.033	0.0678	41.63			
3.050	0.0649	41.63			
3.067	0.0620	41.64			
3.083	0.0599	41.64			
3.100	0.0581	41.66			
3.117	0.0564	41.68			
3.133	0.0553	41.66			
3.150	0.0541	41.66			
3.167	0.0538	41.68			
3.183	0.0535	41.68			
3.200	0.0533	41.68			
3.217	0.0528	41.68			
3.233	0.0525	41.68			
3.250	0.0525	41.69			
3.267	0.0524	41.62			
3.283	0.0524	41.62			
3.300	0.0520	41.62			
3.317	0.0521	41.62			
3.333	0.0523	41.64			
3.350	0.0523	41.64			
3.367	0.0526	41.66			
3.383	0.0528	41.67			
3.400	0.0533	41.66			
3.417	0.0537	41.69			
3.433	0.0541	41.67			
3.450	0.0548	41.67			
3.467	0.0553	41.71			
3.483	0.0561	41.71			
3.500	0.0569	41.72			
3.517	0.0576	41.72			
3.533	0.0589	41.72			
3.550	0.0598	41.74			
3.567	0.0611	41.72			
3.583	0.0624	41.74			
3.600	0.0634	41.75			
3.617	0.0649	41.77			
3.633	0.0658	41.77			
3.650	0.0672	41.77			
3.667	0.0684	41.77			
3.683	0.0692	41.77			
3.700	0.0707	41.79			
3.717	0.0715	41.79			
3.733	0.0727	41.80			
3.750	0.0737	41.82			
3.767	0.0745	41.82			
3.783	0.0757	41.72			
3.800	0.0764	41.73			
3.817	0.0773	41.75			
3.833	0.0783	41.75			
3.850	0.0790	41.75			
3.867	0.0802	41.77			
3.883	0.0808	41.78			
3.900	0.0818	41.78			
3.917	0.0826	41.78			
3.933	0.0833	41.80			
3.950	0.0842	41.80			
3.967	0.0849	41.83			
3.983	0.0859	41.81			
4.000	0.0868	41.83			
4.017	0.0873	41.85			
4.033	0.0882	41.85			
4.050	0.0888	41.86			
4.067	0.0896	41.88			
4.083	0.0905	41.88			
4.100	0.0910	41.86			
4.117	0.0921	41.90			
4.133	0.0928	41.90			
4.150	0.0935	41.81			
4.167	0.0944	41.83			
4.183	0.0949	41.83			
4.200	0.0957	41.83			
4.217	0.0962	41.84			
4.233	0.0969	41.86			
4.250	0.0977	41.88			
4.267	0.0982	41.89			
4.283	0.0991	41.89			
4.300	0.0997	41.89			
4.317	0.1003	41.91			
4.333	0.1011	41.91			
4.350	0.1016	41.92			
4.367	0.1024	41.92			
4.383	0.1030	41.94			
4.400	0.1035	41.94			
4.417	0.1043	41.96			
4.433	0.1048	41.96			
4.450	0.1056	41.96			
4.467	0.1064	41.97			
4.483	0.1068	41.97			
4.500	0.1076	41.97			
4.517	0.1081	42.00			
4.533	0.1089	42.00			
4.550	0.1094	42.00			
4.567	0.1099	42.02			
4.583	0.1107	42.04			
4.600	0.1111	42.04			
4.617	0.1118	42.04			
4.633	0.1126	42.05			
4.650	0.1131	42.07			
4.667	0.1138	42.07			
4.683	0.1143	42.07			
4.700	0.1148	42.09			
4.717	0.1156	42.10			
4.733	0.1161	42.03			
4.750	0.1168	42.03			
4.767	0.1173	42.07			
4.783	0.1179	42.07			
4.800	0.1186	42.05			
4.817	0.1192	42.07			
4.833	0.1198	42.08			
4.850	0.1204	42.10			
4.867	0.1209	42.10			
4.883	0.1216	42.10			
4.900	0.1220	42.10			
4.917	0.1226	42.11			
4.933	0.1233	42.11			
4.950	0.1237	42.13			
4.967	0.1245	42.13			
4.983	0.1248	42.13			
5.000	0.1255	42.15			
5.017	0.1261	42.16			
5.033	0.1265	42.18			
5.050	0.1270	42.19			
5.067	0.1272	42.21			
5.083	0.1276	42.23			
5.100	0.1281	42.23			
5.117	0.1281	42.23			
5.133	0.1284	42.23			
5.150	0.1284	42.26			
5.167	0.1286	42.26			
5.183	0.1287	42.26			
5.200	0.1285	42.26			
5.217	0.1284	42.28			
5.233	0.1281	42.29			
5.250	0.1278	42.29			
5.267	0.1275	42.31			
5.283	0.1271	42.32			
5.300	0.1268	42.31			
5.317	0.1262	42.32			
5.333	0.1257	42.34			
5.350	0.1252	42.34			
5.367	0.1245	42.34			
5.383	0.1238	42.37			
5.400	0.1230	42.39			
5.417	0.1224	42.40			
5.433	0.1216	42.40			
5.450	0.1207	42.40			
5.467	0.1200	42.40			
5.483	0.1190	42.42			
5.500	0.1184	42.44			
5.517	0.1174	42.44			
5.533	0.1165	42.44			
5.550	0.1156	42.45			
5.567	0.1147	42.47			
5.583	0.1138	42.49			
5.600	0.1124	42.49			
5.617	0.1111	42.50			
5.633	0.1106	42.42			
5.650	0.1095	42.43			
5.667	0.1085	42.45			
5.683	0.1076	42.45			
5.700	0.1064	42.45			
5.717	0.1050	42.48			
5.733	0.1039	42.46			
5.750	0.1034	42.48			
5.767	0.1023	42.50			
5.783	0.1014	42.51			
5.800	0.1008	42.50			
5.817	0.1000	42.51			
5.833	0.0993	42.53			
5.850	0.0984	42.51			
5.867	0.0976	42.53			
5.883	0.0966	42.53			
5.900	0.0955	42.54			
5.917	0.0948	42.56			
5.933	0.0940	42.54			
5.950	0.0932	42.58			
5.967	0.0925	42.59			
5.983	0.0916	42.58			
6.000	0.0910	42.58			
6.017	0.0902	42.59			
6.033	0.0894	42.61			
6.050	0.0887	42.62			
6.067	0.0880	42.61			
6.083	0.0875	42.61			
6.100	0.0868	42.61			
6.117	0.0861	42.62			
6.133	0.0856	42.64			
6.150	0.0849	42.64			
6.167	0.0845	42.64			
6.183	0.0838	42.66			
6.200	0.0834	42.67			
6.217	0.0830	42.67			
6.233	0.0823	42.67			
6.250	0.0819	42.67			
6.267	0.0814	42.69			
6.283	0.0810	42.71			
6.300	0.0808	42.72			
6.317	0.0803	42.71			
6.333	0.0800	42.72			
6.350	0.0796	42.72			
6.367	0.0792	42.74			
6.383	0.0789	42.74			
6.400	0.0786	42.74			
6.417	0.0784	42.74			
6.433	0.0782	42.75			
6.450	0.0778	42.75			
6.467	0.0777	42.77			
6.483	0.0774	42.75			
6.500	0.0773	42.75			
6.517	0.0771	42.77			
6.533	0.0770	42.77			
6.550	0.0769	42.77			
6.567	0.0767	42.79			
6.583	0.0766	42.79			
6.600	0.0765	42.79			
6.617	0.0764	42.79			
6.633	0.0764	42.79			
6.650	0.0765	42.79			
6.667	0.0766	42.80			
6.683	0.0766	42.70			
6.700	0.0768	42.76			
6.717	0.0772	42.78			
6.733	0.0775	42.81			
6.750	0.0777	42.82			
6.767	0.0782	42.84			
6.783	0.0786	42.84			
6.800	0.0790	42.86			
6.817	0.0795	42.87			
6.833	0.0803	42.89			
6.850	0.0812	42.91			
6.867	0.0821	42.92			
6.883	0.0828	42.94			
6.900	0.0837	42.95			
6.917	0.0846	42.95			
6.933	0.0859	42.99			
6.950	0.0880	42.99			
6.967	0.0905	43.02			
6.983	0.0929	42.95			
7.000	0.0953	42.98			
7.017	0.0977	42.99			
7.033	0.0998	42.99			
7.050	0.1018	43.01			
7.067	0.1035	43.01			
7.083	0.1051	43.03			
7.100	0.1064	43.03			
7.117	0.1075	43.03			
7.133	0.1084	43.01			
7.150	0.1093	43.01			
7.167	0.1100	43.03			
7.183	0.1104	43.03			
7.200	0.1106	43.01			
7.217	0.1107	43.01			
7.233	0.1108	43.01			
7.250	0.1108	43.01			
7.267	0.1107	43.01			
7.283	0.1104	42.92			
7.300	0.1100	42.92			
7.317	0.1096	42.91			
7.333	0.1090	42.91			
7.350	0.1082	42.91			
7.367	0.1073	42.91			
7.383	0.1063	42.91			
7.400	0.1052	42.91			
7.417	0.1041	42.91			
7.433	0.1027	42.89			
7.450	0.1013	42.89			
7.467	0.0998	42.91			
7.483	0.0983	42.89			
7.500	0.0967	42.89			
7.517	0.0952	42.89			
7.533	0.0939	42.91			
7.550	0.0926	42.91			
7.567	0.0912	42.92			
7.583	0.0898	42.92			
7.600	0.0886	42.92			
7.617	0.0875	42.92			
7.633	0.0863	42.83			
7.650	0.0851	42.83			
7.667	0.0839	42.83			
7.683	0.0828	42.85			
7.700	0.0817	42.86			
7.717	0.0806	42.88			
7.733	0.0796	42.86			
7.750	0.0787	42.88			
7.767	0.0778	42.90			
7.783	0.0767	42.91			
7.800	0.0756	42.93			
7.817	0.0743	42.93			
7.833	0.0732	42.93			
7.850	0.0721	42.93			
7.867	0.0712	42.96			
7.883	0.0701	42.96			
7.900	0.0689	42.98			
7.917	0.0679	42.98			
7.933	0.0670	42.99			
7.950	0.0659	42.99			
7.967	0.0648	42.99			
7.983	0.0638	42.99			
8.000	0.0627	42.99			
8.017	0.0616	43.01			
8.033	0.0607	43.01			
8.050	0.0597	43.01			
8.067	0.0587	43.01			
8.083	0.0579	43.01			
8.100	0.0571	43.02			
8.117	0.0563	43.02			
8.133	0.0554	43.02			
8.150	0.0545	43.02			
8.167	0.0537	43.02			
8.183	0.0530	43.04			
8.200	0.0523	43.02			
8.217	0.0515	43.01			
8.233	0.0507	43.02			
8.250	0.0499	43.02			
8.267	0.0492	43.02			
8.283	0.0485	43.04			
8.300	0.0478	42.95			
8.317	0.0472	42.95			
8.333	0.0466	42.97			
8.350	0.0460	42.95			
8.367	0.0454	42.95			
8.383	0.0449	42.95			
8.400	0.0443	42.95			
8.417	0.0436	42.95			
8.433	0.0430	42.95			
8.450	0.0425	42.95			
8.467	0.0420	42.95			
8.483	0.0414	42.95			
8.500	0.0409	42.94			
8.517	0.0404	42.94			
8.533	0.0400	42.95			
8.550	0.0394	42.95			
8.567	0.0389	42.95			
8.583	0.0385	42.95			
8.600	0.0382	42.95			
8.617	0.0377	42.95			
8.633	0.0372	42.95			
8.650	0.0366	42.97			
8.667	0.0361	42.97			
8.683	0.0357	42.95			
8.700	0.0354	42.95			
8.717	0.0350	42.97			
8.733	0.0345	42.97			
8.750	0.0342	42.97			
8.767	0.0339	42.97			
8.783	0.0336	42.97			
8.800	0.0332	42.98			
8.817	0.0329	42.98			
8.833	0.0326	42.98			
8.850	0.0323	43.00			
8.867	0.0319	43.00			
8.883	0.0315	43.00			
8.900	0.0312	43.00			
8.917	0.0309	43.02			
8.933	0.0306	43.02			
8.950	0.0303	43.02			
8.967	0.0300	42.95			
8.983	0.0298	42.95			
9.000	0.0296	42.95			
9.017	0.0293	42.95			
9.033	0.0291	42.95			
9.050	0.0288	42.96			
9.067	0.0284	42.96			
9.083	0.0281	42.96			
9.100	0.0280	42.96			
9.117	0.0278	42.96			
9.133	0.0276	42.96			
9.150	0.0273	42.96			
9.167	0.0271	42.98			
9.183	0.0268	42.98			
9.200	0.0265	42.98			
9.217	0.0263	42.98			
9.233	0.0260	42.98			
9.250	0.0258	42.96			
9.267	0.0256	42.96			
9.283	0.0254	42.96			
9.300	0.0253	42.98			
9.317	0.0252	42.98			
9.333	0.0250	42.98			
9.350	0.0248	42.98			
9.367	0.0246	42.98			
9.383	0.0244	42.98			
9.400	0.0242	42.96			
9.417	0.0239	42.98			
9.433	0.0237	42.98			
9.450	0.0236	42.98			
9.467	0.0234	42.98			
9.483	0.0233	42.98			
9.500	0.0231	42.98			
9.517	0.0229	42.98			
9.533	0.0227	42.98			
9.550	0.0226	42.98			
9.567	0.0225	42.98			
9.583	0.0223	42.99			
9.600	0.0221	42.99			
9.617	0.0220	42.99			
9.633	0.0219	42.99			
9.650	0.0217	42.99			
9.667	0.0216	42.99			
9.683	0.0214	42.99			
9.700	0.0213	42.98			
9.717	0.0212	42.99			
9.733	0.0210	42.99			
9.750	0.0208	42.99			
9.767	0.0207	42.99			
9.783	0.0206	42.98			
9.800	0.0205	42.99			
9.817	0.0204	42.99			
9.833	0.0203	42.99			
9.850	0.0202	43.01			
9.867	0.0201	42.99			
9.883	0.0200	42.99			
9.900	0.0198	42.92			
9.917	0.0196	42.92			
9.933	0.0195	42.92			
9.950	0.0194	42.92			
9.967	0.0194	42.91			
9.983	0.0193	42.91			
10.000	0.0192	42.92			
10.017	0.0191	42.92			
10.033	0.0190	42.91			
10.050	0.0189	42.91			
10.067	0.0188	42.92			
10.083	0.0187	42.91			
10.100	0.0185	42.91			
10.117	0.0184	42.91			
10.133	0.0183	42.91			
10.150	0.0182	42.92			
10.167	0.0181	42.92			
10.183	0.0180	42.92			
10.200	0.0180	42.92			
10.217	0.0179	42.91			
10.233	0.0178	42.92			
10.250	0.0177	42.92			
10.267	0.0177	42.92			
10.283	0.0177	42.92			
10.300	0.0176	42.92			
10.317	0.0175	42.91			
10.333	0.0174	42.91			
10.350	0.0174	42.91			
10.367	0.0173	42.91			
10.383	0.0171	42.91			
10.400	0.0171	42.91			
10.417	0.0170	42.92			
10.433	0.0169	42.92			
10.450	0.0167	42.92			
10.467	0.0166	42.92			
10.483	0.0167	42.92			
10.500	0.0166	42.92			
10.517	0.0165	42.92			
10.533	0.0164	42.92			
10.550	0.0164	42.91			
10.567	0.0164	42.91			
10.583	0.0163	42.92			
10.600	0.0162	42.91			
10.617	0.0161	42.91			
10.633	0.0160	42.92			
10.650	0.0159	42.92			
10.667	0.0159	42.92			
10.683	0.0158	42.92			
10.700	0.0158	42.92			
10.717	0.0157	42.92			
10.733	0.0156	42.94			
10.750	0.0156	42.95			
10.767	0.0155	42.94			
10.783	0.0155	42.95			
10.800	0.0154	42.97			
10.817	0.0154	42.95			
10.833	0.0153	42.95			
10.850	0.0153	42.95			
10.867	0.0152	42.95			
10.883	0.0151	42.95			
10.900	0.0150	42.95			
10.917	0.0149	42.95			
10.933	0.0149	42.95			
10.950	0.0149	42.95			
10.967	0.0148	42.95			
10.983	0.0148	42.95			
11.000	0.0147	42.95			
11.017	0.0146	42.95			
11.033	0.0146	42.95			
11.050	0.0146	42.95			
11.067	0.0146	42.95			
11.083	0.0145	42.95			
11.100	0.0145	42.95			
11.117	0.0145	42.95			
11.133	0.0144	42.95			
11.150	0.0144	42.95			
11.167	0.0143	42.95			
11.183	0.0143	42.94			
11.200	0.0143	42.95			
11.217	0.0142	42.95			
11.233	0.0140	42.95			
11.250	0.0140	42.97			
11.267	0.0140	42.95			
11.283	0.0141	42.95			
11.300	0.0140	42.95			
11.317	0.0139	42.95			
11.333	0.0138	42.95			
11.350	0.0138	42.95			
11.367	0.0136	42.94			
11.383	0.0136	42.95			
11.400	0.0136	42.97			
11.417	0.0136	42.97			
11.433	0.0135	42.84			
11.450	0.0135	42.97			
11.467	0.0135	42.84			
11.483	0.0135	42.95			
11.500	0.0135	42.84			
11.517	0.0133	42.84			
11.533	0.0133	42.84			
11.550	0.0132	42.84			
11.567	0.0132	42.86			
11.583	0.0132	42.84			
11.600	0.0132	42.84			
11.617	0.0132	42.84			
11.633	0.0132	42.84			
11.650	0.0131	42.86			
11.667	0.0130	42.86			
11.683	0.0130	42.86			
11.700	0.0129	42.84			
11.717	0.0129	42.84			
11.733	0.0129	42.86			
11.750	0.0129	42.86			
11.767	0.0128	42.86			
11.783	0.0128	42.88			
11.800	0.0127	42.86			
11.817	0.0126	42.86			
11.833	0.0126	42.86			
11.850	0.0126	42.84			
11.867	0.0126	42.84			
11.883	0.0126	42.84			
11.900	0.0125	42.86			
11.917	0.0125	42.86			
11.933	0.0125	42.86			
11.950	0.0125	42.84			
11.967	0.0124	42.84			
11.983	0.0123	42.84			
12.000	0.0123	42.84			
12.017	0.0122	42.83			
12.033	0.0123	42.84			
12.050	0.0122	42.86			
12.067	0.0121	42.84			
12.083	0.0121	42.84			
12.100	0.0121	42.84			
12.117	0.0121	42.86			
12.133	0.0121	42.86			
12.150	0.0122	42.84			
12.167	0.0122	42.84			
12.183	0.0121	42.84			
12.200	0.0120	42.84			
12.217	0.0120	42.84			
12.233	0.0120	42.84			
12.250	0.0120	42.84			
12.267	0.0120	42.86			
12.283	0.0119	42.84			
12.300	0.0118	42.84			
12.317	0.0118	42.86			
12.333	0.0118	42.84			
12.350	0.0117	42.84			
12.367	0.0117	42.84			
12.383	0.0117	42.84			
12.400	0.0117	42.84			
12.417	0.0116	42.84			
12.433	0.0115	42.84			
12.450	0.0116	42.84			
12.467	0.0116	42.86			
12.483	0.0115	42.86			
12.500	0.0115	42.84			
12.517	0.0113	42.84			
12.533	0.0113	42.86			
12.550	0.0113	42.84			
12.567	0.0114	42.84			
12.583	0.0114	42.84			
12.600	0.0114	42.84			
12.617	0.0113	42.86			
12.633	0.0113	42.84			
12.650	0.0113	42.84			
12.667	0.0113	42.84			
12.683	0.0112	42.84			
12.700	0.0112	42.84			
12.717	0.0111	42.84			
12.733	0.0112	42.83			
12.750	0.0112	42.84			
12.767	0.0112	42.84			
12.783	0.0112	42.83			
12.800	0.0110	42.83			
12.817	0.0109	42.84			
12.833	0.0110	42.84			
12.850	0.0110	42.84			
12.867	0.0109	42.86			
12.883	0.0109	42.84			
12.900	0.0109	42.84			
12.917	0.0110	42.84			
12.933	0.0109	42.84			
12.950	0.0108	42.84			
12.967	0.0108	42.84			
12.983	0.0109	42.86			
13.000	0.0109	42.86			
13.017	0.0109	42.88			
13.033	0.0108	42.86			
13.050	0.0108	42.84			
13.067	0.0107	42.86			
13.083	0.0107	42.86			
13.100	0.0107	42.89			
13.117	0.0107	42.89			
13.133	0.0107	42.89			
13.150	0.0107	42.88			
13.167	0.0108	42.80			
13.183	0.0108	42.76			
13.200	0.0109	42.73			
13.217	0.0109	42.72			
13.233	0.0109	42.70			
13.250	0.0109	42.70			
13.267	0.0109	42.69			
13.283	0.0109	42.67			
13.300	0.0109	42.65			
13.317	0.0108	42.62			
13.333	0.0108	42.62			
13.350	0.0109	42.64			
13.367	0.0109	42.64			
13.383	0.0109	42.65			
13.400	0.0109	42.65			
13.417	0.0109	42.65			
13.433	0.0109	42.64			
13.450	0.0108	42.64			
13.467	0.0109	42.64			
13.483	0.0109	42.64			
13.500	0.0108	42.64			
13.517	0.0108	42.62			
13.533	0.0108	42.62			
13.550	0.0108	42.62			
13.567	0.0108	42.62			
13.583	0.0109	42.62			
13.600	0.0109	42.61			
13.617	0.0109	42.61			
13.633	0.0109	42.61			
13.650	0.0110	42.61			
13.667	0.0110	42.61			
13.683	0.0109	42.59			
13.700	0.0109	42.59			
13.717	0.0109	42.57			
13.733	0.0108	42.68			
13.750	0.0108	42.68			
13.767	0.0108	42.67			
13.783	0.0109	42.67			
13.800	0.0109	42.67			
13.817	0.0109	42.67			
13.833	0.0109	42.67			
13.850	0.0109	42.67			
13.867	0.0109	42.67			
13.883	0.0109	42.67			
13.900	0.0109	42.67			
13.917	0.0109	42.65			
13.933	0.0108	42.65			
13.950	0.0109	42.65			
13.967	0.0109	42.65			
13.983	0.0109	42.63			
14.000	0.0108	42.63			
14.017	0.0108	42.63			
14.033	0.0109	42.63			
14.050	0.0109	42.63			
14.067	0.0109	42.63			
14.083	0.0109	42.63			
14.100	0.0109	42.63			
14.117	0.0109	42.63			
14.133	0.0108	42.63			
14.150	0.0109	42.63			
14.167	0.0109	42.63			
14.183	0.0109	42.63			
14.200	0.0109	42.62			
14.217	0.0108	42.63			
14.233	0.0108	42.63			
14.250	0.0109	42.62			
14.267	0.0110	42.62			
14.283	0.0110	42.62			
14.300	0.0109	42.63			
14.317	0.0109	42.63			
14.333	0.0108	42.62			
14.350	0.0108	42.62			
14.367	0.0108	42.62			
14.383	0.0108	42.62			
14.400	0.0109	42.60			
14.417	0.0109	42.60			
14.433	0.0109	42.60			
14.450	0.0109	42.60			
14.467	0.0108	42.57			
14.483	0.0108	42.57			
