Methods Information:
30.04.2024 12:38:17
<untitled>  
List:  Volume(ml)       Buffer    ml/min
 ->    0.00 Collect All:  1.50 ml 
01     0.00 to    6.00 BUFFER A     0.50
--------------------------------------------------
--------------------------------------------------
30.04.2024 12:43:40
<untitled>  
List:  Volume(ml)       Buffer    ml/min
01     0.00 to    5.00 BUFFER A     1.00
--------------------------------------------------
--------------------------------------------------
30.04.2024 13:20:54
<untitled>  
List:  Volume(ml)       Buffer    ml/min
 ->    0.00 Collect All:  1.50 ml 
01     0.00 to   20.00  0-100%B     0.70
02    20.00 to   23.00 BUFFER B     1.00
--------------------------------------------------
--------------------------------------------------
30.04.2024 13:29:32
<untitled>  
List:  Volume(ml)       Buffer    ml/min
01     0.00 to    5.00 BUFFER B     1.00
--------------------------------------------------
--------------------------------------------------
Time [min.]:	UV [A.U.]:	Conductivity [mS/cm]:	Events:		
0.000	-0.0002	7.48	Start  0.00 min		
0.017	-0.0003	7.46	Fraction  3.00 min		
0.033	-0.0003	7.46	Fraction  6.00 min		
0.050	-0.0004	7.46	Fraction  9.00 min		
0.067	-0.0004	7.46	Fraction  12.00 min		
0.083	-0.0003	7.46	End  12.01 min		
0.100	-0.0002	7.46	Start  12.01 min		
0.117	-0.0002	7.44	End  17.02 min		
0.133	-0.0002	7.46	Start  17.02 min		
0.150	-0.0002	7.44	Fraction  19.17 min		
0.167	-0.0002	7.44	Fraction  21.31 min		
0.183	-0.0003	7.44	Fraction  23.45 min		
0.200	-0.0002	7.44	Fraction  25.59 min		
0.217	0.0000	7.44	Fraction  27.74 min		
0.233	0.0001	7.44	Fraction  29.88 min		
0.250	0.0002	7.46	Fraction  32.02 min		
0.267	0.0002	7.46	Fraction  34.17 min		
0.283	0.0001	7.44	Fraction  36.31 min		
0.300	0.0001	7.44	Fraction  38.45 min		
0.317	0.0000	7.44	Fraction  40.59 min		
0.333	-0.0001	7.43	Fraction  42.74 min		
0.350	-0.0002	7.43	Fraction  44.88 min		
0.367	-0.0003	7.44	Fraction  46.60 min		
0.383	-0.0003	7.44	Fraction  48.10 min		
0.400	-0.0004	7.43	Fraction  48.60 min		
0.417	-0.0002	7.43	End  48.60 min		
0.433	-0.0001	7.43	Start  48.60 min		
0.450	-0.0001	7.43	End  53.61 min		
0.467	-0.0001	7.43			
0.483	-0.0001	7.43			
0.500	-0.0001	7.43			
0.517	-0.0001	7.43			
0.533	-0.0001	7.43			
0.550	0.0000	7.43			
0.567	-0.0001	7.43			
0.583	-0.0001	7.43			
0.600	-0.0001	7.43			
0.617	-0.0001	7.43			
0.633	-0.0001	7.44			
0.650	-0.0001	7.44			
0.667	-0.0001	7.44			
0.683	-0.0002	7.43			
0.700	-0.0002	7.43			
0.717	-0.0001	7.43			
0.733	-0.0002	7.43			
0.750	-0.0002	7.43			
0.767	-0.0001	7.43			
0.783	-0.0002	7.43			
0.800	-0.0003	7.43			
0.817	-0.0003	7.43			
0.833	-0.0003	7.41			
0.850	-0.0002	7.41			
0.867	-0.0002	7.41			
0.883	-0.0002	7.41			
0.900	-0.0003	7.41			
0.917	-0.0003	7.39			
0.933	-0.0003	7.40			
0.950	-0.0002	7.40			
0.967	-0.0002	7.39			
0.983	-0.0002	7.39			
1.000	-0.0002	7.37			
1.017	-0.0001	7.37			
1.033	-0.0002	7.39			
1.050	-0.0002	7.39			
1.067	-0.0002	7.39			
1.083	-0.0003	7.39			
1.100	-0.0003	7.37			
1.117	-0.0004	7.37			
1.133	-0.0003	7.35			
1.150	-0.0004	7.35			
1.167	-0.0004	7.35			
1.183	-0.0003	7.35			
1.200	-0.0003	7.37			
1.217	-0.0003	7.37			
1.233	-0.0002	7.37			
1.250	-0.0001	7.35			
1.267	-0.0002	7.35			
1.283	-0.0004	7.35			
1.300	-0.0005	7.35			
1.317	-0.0005	7.35			
1.333	-0.0004	7.35			
1.350	-0.0004	7.35			
1.367	-0.0004	7.37			
1.383	-0.0005	7.35			
1.400	-0.0005	7.35			
1.417	-0.0004	7.37			
1.433	-0.0003	7.35			
1.450	-0.0003	7.33			
1.467	-0.0002	7.33			
1.483	-0.0001	7.33			
1.500	-0.0002	7.33			
1.517	-0.0004	7.33			
1.533	-0.0006	7.33			
1.550	-0.0005	7.33			
1.567	-0.0005	7.32			
1.583	-0.0003	7.33			
1.600	-0.0004	7.33			
1.617	-0.0005	7.32			
1.633	-0.0006	7.32			
1.650	-0.0005	7.32			
1.667	-0.0006	7.32			
1.683	-0.0006	7.32			
1.700	-0.0007	7.32			
1.717	-0.0005	7.32			
1.733	-0.0006	7.30			
1.750	-0.0006	7.30			
1.767	-0.0006	7.32			
1.783	-0.0006	7.30			
1.800	-0.0007	7.30			
1.817	-0.0006	7.30			
1.833	-0.0006	7.30			
1.850	-0.0005	7.30			
1.867	-0.0004	7.30			
1.883	-0.0005	7.30			
1.900	-0.0005	7.30			
1.917	-0.0004	7.29			
1.933	-0.0004	7.27			
1.950	-0.0005	7.29			
1.967	-0.0006	7.29			
1.983	-0.0007	7.29			
2.000	-0.0006	7.29			
2.017	-0.0006	7.29			
2.033	-0.0006	7.29			
2.050	-0.0005	7.30			
2.067	-0.0005	7.30			
2.083	-0.0005	7.29			
2.100	-0.0006	7.27			
2.117	-0.0007	7.27			
2.133	-0.0007	7.29			
2.150	-0.0005	7.30			
2.167	-0.0005	7.30			
2.183	-0.0006	7.30			
2.200	-0.0005	7.30			
2.217	-0.0005	7.29			
2.233	-0.0007	7.29			
2.250	-0.0008	7.29			
2.267	-0.0007	7.29			
2.283	-0.0006	7.29			
2.300	-0.0006	7.29			
2.317	-0.0006	7.27			
2.333	-0.0006	7.27			
2.350	-0.0006	7.29			
2.367	-0.0005	7.27			
2.383	-0.0006	7.27			
2.400	-0.0006	7.27			
2.417	-0.0007	7.27			
2.433	-0.0007	7.24			
2.450	-0.0006	7.26			
2.467	-0.0006	7.26			
2.483	-0.0007	7.27			
2.500	-0.0006	7.26			
2.517	-0.0007	7.26			
2.533	-0.0008	7.26			
2.550	-0.0008	7.26			
2.567	-0.0007	7.26			
2.583	-0.0006	7.24			
2.600	-0.0006	7.24			
2.617	-0.0006	7.26			
2.633	-0.0006	7.24			
2.650	-0.0006	7.24			
2.667	-0.0006	7.26			
2.683	-0.0006	7.28			
2.700	-0.0008	7.26			
2.717	-0.0007	7.26			
2.733	-0.0007	7.26			
2.750	-0.0007	7.26			
2.767	-0.0007	7.26			
2.783	-0.0008	7.24			
2.800	-0.0008	7.24			
2.817	-0.0007	7.24			
2.833	-0.0006	7.26			
2.850	-0.0006	7.26			
2.867	-0.0007	7.24			
2.883	-0.0006	7.24			
2.900	-0.0006	7.26			
2.917	-0.0006	7.26			
2.933	-0.0006	7.26			
2.950	-0.0006	7.26			
2.967	-0.0006	7.24			
2.983	-0.0006	7.24			
3.000	-0.0006	7.24			
3.017	-0.0006	7.26			
3.033	-0.0007	7.24			
3.050	-0.0007	7.24			
3.067	-0.0007	7.24			
3.083	-0.0007	7.24			
3.100	-0.0007	7.24			
3.117	-0.0006	7.26			
3.133	-0.0006	7.24			
3.150	-0.0007	7.24			
3.167	-0.0006	7.24			
3.183	-0.0007	7.24			
3.200	-0.0007	7.24			
3.217	-0.0007	7.24			
3.233	-0.0006	7.24			
3.250	-0.0005	7.24			
3.267	-0.0006	7.24			
3.283	-0.0005	7.24			
3.300	-0.0001	7.23			
3.317	0.0006	7.23			
3.333	0.0015	7.24			
3.350	0.0022	7.23			
3.367	0.0032	7.23			
3.383	0.0034	7.24			
3.400	0.0035	7.24			
3.417	0.0030	7.24			
3.433	0.0028	7.23			
3.450	0.0025	7.23			
3.467	0.0024	7.24			
3.483	0.0024	7.23			
3.500	0.0021	7.24			
3.517	0.0015	7.23			
3.533	0.0011	7.23			
3.550	0.0010	7.23			
3.567	0.0008	7.23			
3.583	0.0007	7.23			
3.600	0.0006	7.24			
3.617	0.0006	7.23			
3.633	0.0007	7.23			
3.650	0.0009	7.23			
3.667	0.0011	7.23			
3.683	0.0009	7.23			
3.700	0.0008	7.23			
3.717	0.0008	7.23			
3.733	0.0008	7.24			
3.750	0.0009	7.23			
3.767	0.0009	7.23			
3.783	0.0011	7.24			
3.800	0.0012	7.23			
3.817	0.0012	7.21			
3.833	0.0011	7.23			
3.850	0.0010	7.23			
3.867	0.0010	7.23			
3.883	0.0008	7.23			
3.900	0.0007	7.23			
3.917	0.0006	7.23			
3.933	0.0006	7.23			
3.950	0.0005	7.23			
3.967	0.0004	7.23			
3.983	0.0003	7.23			
4.000	0.0004	7.23			
4.017	0.0004	7.23			
4.033	0.0004	7.21			
4.050	0.0003	7.21			
4.067	0.0002	7.21			
4.083	0.0003	7.23			
4.100	0.0003	7.23			
4.117	0.0004	7.23			
4.133	0.0003	7.23			
4.150	0.0003	7.23			
4.167	0.0003	7.23			
4.183	0.0003	7.23			
4.200	0.0003	7.23			
4.217	0.0004	7.23			
4.233	0.0004	7.23			
4.250	0.0004	7.23			
4.267	0.0005	7.23			
4.283	0.0005	7.23			
4.300	0.0006	7.23			
4.317	0.0006	7.23			
4.333	0.0004	7.23			
4.350	0.0002	7.21			
4.367	0.0001	7.23			
4.383	0.0002	7.23			
4.400	0.0001	7.23			
4.417	0.0000	7.23			
4.433	0.0000	7.23			
4.450	0.0000	7.23			
4.467	0.0001	7.23			
4.483	0.0002	7.23			
4.500	0.0002	7.23			
4.517	0.0001	7.23			
4.533	0.0001	7.23			
4.550	0.0001	7.23			
4.567	0.0000	7.23			
4.583	0.0001	7.23			
4.600	0.0002	7.23			
4.617	0.0002	7.23			
4.633	0.0003	7.23			
4.650	0.0003	7.23			
4.667	0.0003	7.23			
4.683	0.0004	7.23			
4.700	0.0005	7.23			
4.717	0.0006	7.23			
4.733	0.0007	7.23			
4.750	0.0008	7.24			
4.767	0.0009	7.23			
4.783	0.0010	7.23			
4.800	0.0010	7.24			
4.817	0.0011	7.24			
4.833	0.0013	7.23			
4.850	0.0014	7.23			
4.867	0.0014	7.24			
4.883	0.0016	7.24			
4.900	0.0019	7.24			
4.917	0.0021	7.26			
4.933	0.0022	7.24			
4.950	0.0023	7.26			
4.967	0.0025	7.26			
4.983	0.0026	7.26			
5.000	0.0026	7.26			
5.017	0.0028	7.28			
5.033	0.0030	7.26			
5.050	0.0033	7.28			
5.067	0.0035	7.28			
5.083	0.0037	7.28			
5.100	0.0039	7.28			
5.117	0.0041	7.29			
5.133	0.0043	7.29			
5.150	0.0044	7.29			
5.167	0.0046	7.31			
5.183	0.0049	7.29			
5.200	0.0051	7.31			
5.217	0.0054	7.31			
5.233	0.0055	7.31			
5.250	0.0057	7.31			
5.267	0.0060	7.32			
5.283	0.0063	7.34			
5.300	0.0067	7.32			
5.317	0.0069	7.32			
5.333	0.0071	7.34			
5.350	0.0073	7.34			
5.367	0.0074	7.35			
5.383	0.0076	7.35			
5.400	0.0078	7.37			
5.417	0.0080	7.35			
5.433	0.0082	7.37			
5.450	0.0084	7.37			
5.467	0.0086	7.38			
5.483	0.0087	7.38			
5.500	0.0090	7.38			
5.517	0.0093	7.38			
5.533	0.0094	7.40			
5.550	0.0097	7.40			
5.567	0.0099	7.42			
5.583	0.0102	7.42			
5.600	0.0105	7.42			
5.617	0.0107	7.42			
5.633	0.0110	7.42			
5.650	0.0112	7.43			
5.667	0.0113	7.43			
5.683	0.0117	7.45			
5.700	0.0120	7.43			
5.717	0.0123	7.43			
5.733	0.0125	7.45			
5.750	0.0126	7.45			
5.767	0.0128	7.45			
5.783	0.0130	7.46			
5.800	0.0132	7.45			
5.817	0.0134	7.45			
5.833	0.0136	7.46			
5.850	0.0139	7.48			
5.867	0.0140	7.48			
5.883	0.0142	7.49			
5.900	0.0144	7.49			
5.917	0.0145	7.49			
5.933	0.0148	7.49			
5.950	0.0149	7.51			
5.967	0.0151	7.51			
5.983	0.0154	7.51			
6.000	0.0155	7.51			
6.017	0.0159	7.51			
6.033	0.0160	7.51			
6.050	0.0161	7.52			
6.067	0.0162	7.51			
6.083	0.0165	7.51			
6.100	0.0169	7.52			
6.117	0.0170	7.51			
6.133	0.0172	7.52			
6.150	0.0175	7.52			
6.167	0.0177	7.54			
6.183	0.0179	7.52			
6.200	0.0179	7.54			
6.217	0.0181	7.54			
6.233	0.0184	7.55			
6.250	0.0185	7.54			
6.267	0.0188	7.55			
6.283	0.0189	7.55			
6.300	0.0191	7.54			
6.317	0.0192	7.54			
6.333	0.0192	7.55			
6.350	0.0194	7.55			
6.367	0.0196	7.55			
6.383	0.0198	7.55			
6.400	0.0200	7.55			
6.417	0.0200	7.55			
6.433	0.0201	7.55			
6.450	0.0204	7.55			
6.467	0.0205	7.55			
6.483	0.0206	7.55			
6.500	0.0208	7.55			
6.517	0.0210	7.55			
6.533	0.0212	7.55			
6.550	0.0212	7.55			
6.567	0.0214	7.55			
6.583	0.0215	7.57			
6.600	0.0217	7.57			
6.617	0.0218	7.57			
6.633	0.0218	7.55			
6.650	0.0220	7.57			
6.667	0.0220	7.55			
6.683	0.0221	7.57			
6.700	0.0222	7.55			
6.717	0.0223	7.57			
6.733	0.0225	7.57			
6.750	0.0226	7.55			
6.767	0.0227	7.57			
6.783	0.0228	7.57			
6.800	0.0227	7.55			
6.817	0.0228	7.55			
6.833	0.0229	7.57			
6.850	0.0229	7.57			
6.867	0.0232	7.55			
6.883	0.0233	7.55			
6.900	0.0234	7.55			
6.917	0.0235	7.55			
6.933	0.0234	7.57			
6.950	0.0235	7.57			
6.967	0.0235	7.57			
6.983	0.0236	7.57			
7.000	0.0236	7.57			
7.017	0.0236	7.57			
7.033	0.0237	7.57			
7.050	0.0239	7.57			
7.067	0.0240	7.55			
7.083	0.0240	7.55			
7.100	0.0241	7.57			
7.117	0.0242	7.57			
7.133	0.0242	7.57			
7.150	0.0242	7.55			
7.167	0.0242	7.55			
7.183	0.0242	7.55			
7.200	0.0244	7.55			
7.217	0.0243	7.55			
7.233	0.0243	7.57			
7.250	0.0243	7.55			
7.267	0.0243	7.55			
7.283	0.0244	7.55			
7.300	0.0244	7.55			
7.317	0.0245	7.55			
7.333	0.0246	7.55			
7.350	0.0245	7.55			
7.367	0.0245	7.54			
7.383	0.0244	7.54			
7.400	0.0244	7.54			
7.417	0.0244	7.54			
7.433	0.0244	7.54			
7.450	0.0245	7.54			
7.467	0.0245	7.52			
7.483	0.0245	7.52			
7.500	0.0247	7.52			
7.517	0.0246	7.52			
7.533	0.0247	7.52			
7.550	0.0246	7.52			
7.567	0.0245	7.52			
7.583	0.0246	7.52			
7.600	0.0246	7.52			
7.617	0.0246	7.51			
7.633	0.0247	7.51			
7.650	0.0248	7.51			
7.667	0.0250	7.51			
7.683	0.0249	7.51			
7.700	0.0248	7.52			
7.717	0.0247	7.51			
7.733	0.0248	7.49			
7.750	0.0251	7.51			
7.767	0.0250	7.51			
7.783	0.0249	7.49			
7.800	0.0249	7.51			
7.817	0.0248	7.51			
7.833	0.0248	7.51			
7.850	0.0247	7.49			
7.867	0.0249	7.48			
7.883	0.0250	7.48			
7.900	0.0250	7.48			
7.917	0.0251	7.48			
7.933	0.0251	7.49			
7.950	0.0250	7.49			
7.967	0.0252	7.48			
7.983	0.0250	7.48			
8.000	0.0249	7.48			
8.017	0.0250	7.48			
8.033	0.0252	7.46			
8.050	0.0253	7.46			
8.067	0.0250	7.46			
8.083	0.0250	7.46			
8.100	0.0249	7.46			
8.117	0.0250	7.46			
8.133	0.0250	7.46			
8.150	0.0249	7.46			
8.167	0.0249	7.45			
8.183	0.0249	7.45			
8.200	0.0249	7.46			
8.217	0.0250	7.45			
8.233	0.0249	7.46			
8.250	0.0250	7.46			
8.267	0.0250	7.45			
8.283	0.0250	7.45			
8.300	0.0250	7.45			
8.317	0.0249	7.43			
8.333	0.0248	7.43			
8.350	0.0246	7.43			
8.367	0.0246	7.43			
8.383	0.0246	7.43			
8.400	0.0245	7.42			
8.417	0.0246	7.43			
8.433	0.0247	7.43			
8.450	0.0244	7.43			
8.467	0.0243	7.43			
8.483	0.0242	7.43			
8.500	0.0242	7.42			
8.517	0.0242	7.42			
8.533	0.0240	7.42			
8.550	0.0239	7.42			
8.567	0.0237	7.42			
8.583	0.0234	7.40			
8.600	0.0234	7.40			
8.617	0.0235	7.40			
8.633	0.0237	7.42			
8.650	0.0239	7.40			
8.667	0.0239	7.40			
8.683	0.0237	7.38			
8.700	0.0235	7.40			
8.717	0.0235	7.40			
8.733	0.0235	7.38			
8.750	0.0233	7.38			
8.767	0.0235	7.38			
8.783	0.0234	7.38			
8.800	0.0231	7.38			
8.817	0.0232	7.38			
8.833	0.0232	7.38			
8.850	0.0232	7.37			
8.867	0.0232	7.37			
8.883	0.0231	7.37			
8.900	0.0232	7.38			
8.917	0.0231	7.37			
8.933	0.0233	7.37			
8.950	0.0234	7.37			
8.967	0.0233	7.37			
8.983	0.0232	7.35			
9.000	0.0229	7.37			
9.017	0.0228	7.37			
9.033	0.0228	7.37			
9.050	0.0228	7.37			
9.067	0.0230	7.37			
9.083	0.0228	7.37			
9.100	0.0226	7.35			
9.117	0.0226	7.35			
9.133	0.0225	7.35			
9.150	0.0225	7.35			
9.167	0.0224	7.35			
9.183	0.0226	7.35			
9.200	0.0225	7.35			
9.217	0.0223	7.34			
9.233	0.0222	7.34			
9.250	0.0220	7.35			
9.267	0.0219	7.34			
9.283	0.0218	7.35			
9.300	0.0215	7.34			
9.317	0.0216	7.34			
9.333	0.0216	7.34			
9.350	0.0214	7.35			
9.367	0.0214	7.34			
9.383	0.0214	7.34			
9.400	0.0215	7.34			
9.417	0.0213	7.34			
9.433	0.0213	7.32			
9.450	0.0214	7.32			
9.467	0.0211	7.34			
9.483	0.0209	7.35			
9.500	0.0209	7.34			
9.517	0.0207	7.32			
9.533	0.0206	7.34			
9.550	0.0206	7.32			
9.567	0.0206	7.32			
9.583	0.0204	7.34			
9.600	0.0203	7.34			
9.617	0.0203	7.32			
9.633	0.0203	7.31			
9.650	0.0201	7.31			
9.667	0.0200	7.32			
9.683	0.0201	7.32			
9.700	0.0201	7.31			
9.717	0.0198	7.31			
9.733	0.0196	7.31			
9.750	0.0195	7.31			
9.767	0.0194	7.31			
9.783	0.0194	7.31			
9.800	0.0192	7.31			
9.817	0.0192	7.29			
9.833	0.0192	7.29			
9.850	0.0190	7.29			
9.867	0.0190	7.29			
9.883	0.0189	7.31			
9.900	0.0190	7.29			
9.917	0.0189	7.29			
9.933	0.0187	7.29			
9.950	0.0186	7.31			
9.967	0.0184	7.31			
9.983	0.0182	7.31			
10.000	0.0183	7.31			
10.017	0.0181	7.29			
10.033	0.0180	7.29			
10.050	0.0179	7.29			
10.067	0.0180	7.29			
10.083	0.0181	7.29			
10.100	0.0179	7.29			
10.117	0.0178	7.29			
10.133	0.0177	7.29			
10.150	0.0176	7.28			
10.167	0.0175	7.28			
10.183	0.0176	7.29			
10.200	0.0175	7.28			
10.217	0.0171	7.29			
10.233	0.0170	7.29			
10.250	0.0171	7.28			
10.267	0.0170	7.28			
10.283	0.0170	7.28			
10.300	0.0168	7.28			
10.317	0.0166	7.29			
10.333	0.0166	7.28			
10.350	0.0166	7.28			
10.367	0.0165	7.28			
10.383	0.0164	7.28			
10.400	0.0163	7.28			
10.417	0.0163	7.28			
10.433	0.0161	7.28			
10.450	0.0159	7.28			
10.467	0.0161	7.29			
10.483	0.0160	7.28			
10.500	0.0158	7.26			
10.517	0.0158	7.28			
10.533	0.0158	7.28			
10.550	0.0157	7.28			
10.567	0.0155	7.28			
10.583	0.0155	7.26			
10.600	0.0154	7.26			
10.617	0.0152	7.26			
10.633	0.0152	7.26			
10.650	0.0151	7.26			
10.667	0.0150	7.28			
10.683	0.0149	7.26			
10.700	0.0149	7.26			
10.717	0.0151	7.26			
10.733	0.0150	7.26			
10.750	0.0150	7.24			
10.767	0.0149	7.26			
10.783	0.0147	7.26			
10.800	0.0147	7.26			
10.817	0.0146	7.26			
10.833	0.0143	7.26			
10.850	0.0144	7.26			
10.867	0.0144	7.26			
10.883	0.0145	7.26			
10.900	0.0142	7.24			
10.917	0.0142	7.24			
10.933	0.0141	7.26			
10.950	0.0138	7.26			
10.967	0.0137	7.24			
10.983	0.0135	7.24			
11.000	0.0135	7.24			
11.017	0.0134	7.26			
11.033	0.0134	7.24			
11.050	0.0134	7.26			
11.067	0.0134	7.24			
11.083	0.0134	7.23			
11.100	0.0134	7.23			
11.117	0.0131	7.24			
11.133	0.0130	7.24			
11.150	0.0130	7.23			
11.167	0.0131	7.24			
11.183	0.0130	7.24			
11.200	0.0129	7.24			
11.217	0.0128	7.24			
11.233	0.0127	7.23			
11.250	0.0127	7.23			
11.267	0.0127	7.23			
11.283	0.0126	7.24			
11.300	0.0126	7.24			
11.317	0.0125	7.24			
11.333	0.0125	7.23			
11.350	0.0124	7.24			
11.367	0.0123	7.24			
11.383	0.0124	7.24			
11.400	0.0125	7.24			
11.417	0.0124	7.24			
11.433	0.0125	7.24			
11.450	0.0125	7.24			
11.467	0.0124	7.24			
11.483	0.0123	7.23			
11.500	0.0122	7.24			
11.517	0.0122	7.23			
11.533	0.0123	7.23			
11.550	0.0122	7.23			
11.567	0.0122	7.24			
11.583	0.0120	7.24			
11.600	0.0120	7.24			
11.617	0.0120	7.23			
11.633	0.0119	7.23			
11.650	0.0119	7.24			
11.667	0.0119	7.23			
11.683	0.0119	7.23			
11.700	0.0118	7.23			
11.717	0.0117	7.24			
11.733	0.0116	7.24			
11.750	0.0115	7.23			
11.767	0.0116	7.23			
11.783	0.0116	7.24			
11.800	0.0116	7.23			
11.817	0.0117	7.21			
11.833	0.0117	7.23			
11.850	0.0116	7.23			
11.867	0.0115	7.23			
11.883	0.0114	7.23			
11.900	0.0114	7.23			
11.917	0.0114	7.23			
11.933	0.0114	7.23			
11.950	0.0111	7.23			
11.967	0.0111	7.23			
11.983	0.0112	7.24			
12.000	0.0113	7.23			
12.017	0.0111	7.21			
12.033	0.0111	7.18			
12.050	0.0111	7.20			
12.067	0.0112	7.21			
12.083	0.0112	7.21			
12.100	0.0110	7.23			
12.117	0.0106	7.20			
12.133	0.0103	7.21			
12.150	0.0105	7.21			
12.167	0.0104	7.21			
12.183	0.0103	7.21			
12.200	0.0102	7.23			
12.217	0.0101	7.21			
12.233	0.0100	7.21			
12.250	0.0096	7.20			
12.267	0.0094	7.21			
12.283	0.0093	7.21			
12.300	0.0091	7.23			
12.317	0.0089	7.23			
12.333	0.0088	7.21			
12.350	0.0086	7.23			
12.367	0.0084	7.23			
12.383	0.0083	7.24			
12.400	0.0083	7.24			
12.417	0.0084	7.23			
12.433	0.0084	7.24			
12.450	0.0084	7.24			
12.467	0.0085	7.24			
12.483	0.0086	7.24			
12.500	0.0086	7.24			
12.517	0.0086	7.24			
12.533	0.0084	7.26			
12.550	0.0083	7.26			
12.567	0.0084	7.26			
12.583	0.0084	7.26			
12.600	0.0084	7.26			
12.617	0.0083	7.26			
12.633	0.0084	7.28			
12.650	0.0083	7.28			
12.667	0.0082	7.26			
12.683	0.0081	7.28			
12.700	0.0081	7.28			
12.717	0.0081	7.28			
12.733	0.0079	7.26			
12.750	0.0078	7.28			
12.767	0.0078	7.28			
12.783	0.0078	7.26			
12.800	0.0077	7.26			
12.817	0.0076	7.26			
12.833	0.0076	7.26			
12.850	0.0075	7.26			
12.867	0.0074	7.25			
12.883	0.0074	7.25			
12.900	0.0074	7.25			
12.917	0.0073	7.25			
12.933	0.0072	7.25			
12.950	0.0070	7.25			
12.967	0.0070	7.25			
12.983	0.0070	7.25			
13.000	0.0069	7.25			
13.017	0.0068	7.25			
13.033	0.0067	7.25			
13.050	0.0067	7.25			
13.067	0.0067	7.25			
13.083	0.0067	7.25			
13.100	0.0066	7.25			
13.117	0.0064	7.25			
13.133	0.0064	7.25			
13.150	0.0064	7.25			
13.167	0.0063	7.25			
13.183	0.0061	7.25			
13.200	0.0061	7.23			
13.217	0.0061	7.23			
13.233	0.0061	7.23			
13.250	0.0060	7.23			
13.267	0.0060	7.23			
13.283	0.0059	7.23			
13.300	0.0059	7.23			
13.317	0.0057	7.22			
13.333	0.0058	7.23			
13.350	0.0058	7.23			
13.367	0.0058	7.23			
13.383	0.0057	7.22			
13.400	0.0057	7.23			
13.417	0.0057	7.22			
13.433	0.0056	7.22			
13.450	0.0055	7.20			
13.467	0.0054	7.20			
13.483	0.0054	7.20			
13.500	0.0054	7.20			
13.517	0.0054	7.20			
13.533	0.0053	7.20			
13.550	0.0053	7.20			
13.567	0.0053	7.20			
13.583	0.0052	7.22			
13.600	0.0052	7.20			
13.617	0.0051	7.19			
13.633	0.0052	7.20			
13.650	0.0052	7.20			
13.667	0.0051	7.20			
13.683	0.0050	7.20			
13.700	0.0050	7.19			
13.717	0.0050	7.19			
13.733	0.0050	7.19			
13.750	0.0050	7.19			
13.767	0.0049	7.20			
13.783	0.0048	7.20			
13.800	0.0049	7.20			
13.817	0.0049	7.20			
13.833	0.0049	7.20			
13.850	0.0049	7.20			
13.867	0.0048	7.20			
13.883	0.0046	7.20			
13.900	0.0046	7.20			
13.917	0.0047	7.19			
13.933	0.0047	7.19			
13.950	0.0047	7.19			
13.967	0.0045	7.19			
13.983	0.0045	7.19			
14.000	0.0046	7.19			
14.017	0.0046	7.20			
14.033	0.0045	7.19			
14.050	0.0045	7.19			
14.067	0.0045	7.19			
14.083	0.0045	7.19			
14.100	0.0045	7.19			
14.117	0.0045	7.19			
14.133	0.0044	7.19			
14.150	0.0044	7.19			
14.167	0.0043	7.17			
14.183	0.0043	7.17			
14.200	0.0042	7.17			
14.217	0.0042	7.17			
14.233	0.0042	7.19			
14.250	0.0042	7.19			
14.267	0.0041	7.19			
